# Orbital solution for gas clouds in the Central Molecular Zone, published in Kruijssen, Dale & Longmore, 2015, MNRAS, 447, 1063-1083
# t[Myr], x[pc], y[pc], z[pc], R[pc], vx[km/s], vy[km/s], vz[km/s], vorb[km/s], l[deg], b[deg], vlos'[km/s], mu_l'[mas/yr], mu_b'[mas/yr], mu_x'[mas/yr], mu_y'[mas/yr]
# IMPORTANT: see Appendix C in the accompanying paper for details on the coordinate systems and assumptions

 -2.50    100.89649    -13.09174    -12.03820     93.69050   -106.01843   -115.60171     31.17278    159.93066     -0.68011     -0.08115   -129.60171     -3.74815      0.57155     -2.44993     -2.89364
 -2.49     99.79701    -14.27157    -11.71730     92.76178   -108.69741   -115.19709     31.54509    161.50413     -0.67270     -0.07898   -129.19709     -3.68167      0.58079     -2.42292     -2.83222
 -2.48     98.67997    -15.44879    -11.39394     91.82781   -111.37005   -114.76837     31.90407    163.07341     -0.66517     -0.07680   -128.76837     -3.61535      0.58970     -2.39572     -2.77110
 -2.47     97.51936    -16.61849    -11.06498     90.88247   -114.02330   -114.27834     32.22802    164.62830     -0.65735     -0.07459   -128.27834     -3.54951      0.59774     -2.36803     -2.71085
 -2.46     96.34146    -17.78478    -10.73403     89.93334   -116.66740   -113.76336     32.53729    166.17591     -0.64941     -0.07235   -127.76336     -3.48390      0.60541     -2.34015     -2.65099
 -2.45     95.13762    -18.94596    -10.40008     88.97854   -119.29779   -113.21097     32.82454    167.71261     -0.64129     -0.07010   -127.21097     -3.41863      0.61254     -2.31198     -2.59170
 -2.44     93.89951    -20.09949    -10.06261     88.01783   -121.90809   -112.60765     33.08123    169.23235     -0.63295     -0.06783   -126.60765     -3.35385      0.61891     -2.28343     -2.53324
 -2.43     92.64436    -21.24898     -9.72352     87.05461   -124.50786   -111.97861     33.32233    170.74301     -0.62449     -0.06554   -125.97861     -3.28934      0.62489     -2.25469     -2.47520
 -2.42     91.35528    -22.38999     -9.38142     86.08725   -127.08561   -111.29761     33.53168    172.23429     -0.61580     -0.06324   -125.29761     -3.22537      0.63009     -2.22556     -2.41804
 -2.41     90.04104    -23.52399     -9.03747     85.11820   -129.64530   -110.57686     33.71630    173.70923     -0.60694     -0.06092   -124.57686     -3.16185      0.63467     -2.19614     -2.36158
 -2.40     88.71003    -24.65332     -8.69229     84.14803   -132.19296   -109.82960     33.88443    175.17327     -0.59797     -0.05859   -123.82960     -3.09863      0.63884     -2.16654     -2.30559
 -2.39     87.33760    -25.76987     -8.34470     83.17758   -134.70776   -109.01478     34.00987    176.60703     -0.58871     -0.05625   -123.01478     -3.03623      0.64195     -2.13645     -2.25085
 -2.38     85.94883    -26.88086     -7.99643     82.20810   -137.20822   -108.17243     34.11762    178.02744     -0.57935     -0.05390   -122.17243     -2.97418      0.64463     -2.10619     -2.19665
 -2.37     84.53550    -27.98355     -7.64714     81.24004   -139.68722   -107.28877     34.19887    179.42785     -0.56983     -0.05155   -121.28877     -2.91266      0.64664     -2.07564     -2.14324
 -2.36     83.09003    -29.07418     -7.29709     80.27626   -142.13295   -106.34987     34.24357    180.79792     -0.56008     -0.04919   -120.34987     -2.85197      0.64775     -2.04475     -2.09101
 -2.35     81.62861    -30.15859     -6.94681     79.31523   -144.56116   -105.38323     34.26973    182.15207     -0.55023     -0.04683   -119.38323     -2.79172      0.64840     -2.01370     -2.03939
 -2.34     80.13558    -31.23006     -6.59637     78.36096   -146.95255   -104.36091     34.25829    183.47286     -0.54017     -0.04446   -118.36091     -2.73237      0.64812     -1.98234     -1.98904
 -2.33     78.61932    -32.29116     -6.24628     77.41374   -149.31424   -103.29630     34.21793    184.76678     -0.52995     -0.04210   -117.29630     -2.67377      0.64712     -1.95075     -1.93969
 -2.32     77.08757    -33.34533     -5.89642     76.47122   -151.65612   -102.20348     34.15827    186.04279     -0.51962     -0.03975   -116.20348     -2.61565      0.64564     -1.91901     -1.89100
 -2.31     75.51792    -34.38105     -5.54794     75.54397   -153.94484   -101.03938     34.04927    187.27088     -0.50904     -0.03740   -115.03938     -2.55886      0.64293     -1.88692     -1.84409
 -2.30     73.93349    -35.40891     -5.20034     74.62432   -156.21075    -99.84650     33.92009    188.47856     -0.49836     -0.03505   -113.84650     -2.50263      0.63973     -1.85470     -1.79792
 -2.29     72.32686    -36.42498     -4.85405     73.71604   -158.44244    -98.61046     33.76068    189.65562     -0.48753     -0.03272   -112.61046     -2.44725      0.63577     -1.82228     -1.75286
 -2.28     70.69142    -37.42441     -4.51019     72.82605   -160.62525    -97.31644     33.56019    190.78936     -0.47651     -0.03040   -111.31644     -2.39309      0.63080     -1.78964     -1.70937
 -2.27     69.04177    -38.41527     -4.16770     71.94602   -162.78265    -95.99344     33.33902    191.90075     -0.46539     -0.02809   -109.99344     -2.33955      0.62531     -1.75689     -1.66668
 -2.26     67.36414    -39.38853     -3.82832     71.08753   -164.88731    -94.61250     33.07620    192.96610     -0.45408     -0.02581   -108.61250     -2.28732      0.61879     -1.72394     -1.62565
 -2.25     65.66620    -40.34788     -3.49177     70.24773   -166.94933    -93.18838     32.78184    193.99485     -0.44263     -0.02354   -107.18838     -2.23615      0.61148     -1.69089     -1.58593
 -2.24     63.95470    -41.29795     -3.15711     69.42039   -168.98291    -91.73545     32.46646    194.99920     -0.43110     -0.02128   -105.73545     -2.18569      0.60365     -1.65776     -1.54709
 -2.23     62.21055    -42.22367     -2.82805     68.62859   -170.94090    -90.21077     32.09812    195.93956     -0.41934     -0.01906   -104.21077     -2.13710      0.59451     -1.62449     -1.51053
 -2.22     60.45385    -43.13917     -2.50157     67.85278   -172.86679    -88.65758     31.70853    196.85314     -0.40750     -0.01686   -102.65758     -2.08931      0.58485     -1.59119     -1.47492
 -2.21     58.67831    -44.03936     -2.17897     67.10098   -174.74452    -87.06165     31.28707    197.72657     -0.39553     -0.01469   -101.06165     -2.04272      0.57439     -1.55785     -1.44074
 -2.20     56.87874    -44.91819     -1.86223     66.38480   -176.55424    -85.40938     30.82317    198.54419     -0.38340     -0.01255    -99.40938     -1.99781      0.56288     -1.52449     -1.40855
 -2.19     55.06745    -45.78612     -1.54860     65.68734   -178.32899    -83.72918     30.33811    199.33336     -0.37119     -0.01044    -97.72918     -1.95377      0.55084     -1.49113     -1.37737
 -2.18     53.23328    -46.63179     -1.24152     65.02913   -180.03186    -81.99359     29.81089    200.06455     -0.35883     -0.00837    -95.99359     -1.91151      0.53776     -1.45782     -1.34826
 -2.17     51.38284    -47.46007     -0.93988     64.40301   -181.67862    -80.21662     29.25217    200.75101     -0.34636     -0.00634    -94.21662     -1.87065      0.52389     -1.42458     -1.32074
 -2.16     49.52157    -48.27678     -0.64186     63.79830   -183.28797    -78.41207     28.67245    201.40766     -0.33381     -0.00433    -92.41207     -1.83071      0.50951     -1.39137     -1.29428
 -2.15     47.63475    -49.06340     -0.35375     63.25138   -184.79941    -76.53980     28.04090    201.98755     -0.32109     -0.00238    -90.53980     -1.79320      0.49383     -1.35835     -1.27057
 -2.14     45.73838    -49.83755     -0.06994     62.72920   -186.26965    -74.64146     27.38914    202.53581     -0.30831     -0.00047    -88.64146     -1.75672      0.47766     -1.32543     -1.24799
 -2.13     43.82767    -50.59300      0.20742     62.24412   -187.67809    -72.70401     26.70704    203.03663     -0.29543      0.00140    -86.70401     -1.72177      0.46074     -1.29267     -1.22710
 -2.12     41.89919    -51.32269      0.47554     61.81152   -189.00023    -70.71682     25.98582    203.47258     -0.28243      0.00321    -84.71682     -1.68896      0.44284     -1.26020     -1.20855
 -2.11     39.96228    -52.03927      0.73886     61.40586   -190.27822    -68.70560     25.24551    203.87574     -0.26937      0.00498    -82.70560     -1.65725      0.42447     -1.22790     -1.19118
 -2.10     38.00900    -52.72933      0.99232     61.05535   -191.46624    -66.64745     24.46771    204.21268     -0.25621      0.00669    -80.64745     -1.62777      0.40517     -1.19598     -1.17619
 -2.09     36.04466    -53.39889      1.23791     60.74796   -192.58413    -64.55667     23.66335    204.49914     -0.24297      0.00834    -78.55667     -1.60003      0.38521     -1.16440     -1.16303
 -2.08     34.07294    -54.05480      1.47827     60.46931   -193.65530    -62.44412     22.84125    204.75196     -0.22967      0.00996    -76.44412     -1.57344      0.36481     -1.13306     -1.15108
 -2.07     32.08466    -54.67573      1.70484     60.26483   -194.60584    -60.28168     21.97770    204.91977     -0.21627      0.01149    -74.28168     -1.54986      0.34338     -1.10240     -1.14223
 -2.06     30.09057    -55.28236      1.92563     60.09068   -195.50683    -58.10127     21.09886    205.05339     -0.20283      0.01298    -72.10127     -1.52750      0.32157     -1.07206     -1.13461
 -2.05     28.08776    -55.86753      2.13775     59.96205   -196.33348    -55.89392     20.19708    205.13573     -0.18933      0.01441    -69.89392     -1.50699      0.29919     -1.04220     -1.12887
 -2.04     26.07495    -56.42355      2.33783     59.89490   -197.05888    -53.65490     19.26756    205.14969     -0.17576      0.01576    -67.65490     -1.48898      0.27612     -1.01306     -1.12562
 -2.03     24.05756    -56.96487      2.53179     59.85854   -197.73326    -51.40117     18.32494    205.12955     -0.16216      0.01707    -65.40117     -1.47225      0.25273     -0.98431     -1.12362
 -2.02     22.03185    -57.47655      2.71329     59.88389   -198.30480    -49.12028     17.35765    205.04142     -0.14851      0.01829    -63.12028     -1.45807      0.22873     -0.95636     -1.12412
 -2.01     20.00116    -57.96569      2.88515     59.95524   -198.79844    -46.82247     16.37428    204.90284     -0.13482      0.01945    -60.82247     -1.44582      0.20433     -0.92909     -1.12647
 -2.00     17.96716    -58.43981      3.05060     60.05728   -199.24016    -44.51340     15.38019    204.73064     -0.12111      0.02056    -58.51340     -1.43486      0.17966     -0.90226     -1.13005
 -1.99     15.92699    -58.87596      3.19959     60.23485   -199.55147    -42.18203     14.36351    204.47573     -0.10736      0.02157    -56.18203     -1.42713      0.15443     -0.87664     -1.13669
 -1.98     13.88522    -59.29680      3.34186     60.44189   -199.81070    -39.84410     13.33951    204.18847     -0.09360      0.02253    -53.84410     -1.42070      0.12902     -0.85153     -1.14452
 -1.97     11.84102    -59.69466      3.47406     60.69317   -199.99177    -37.49631     12.30452    203.85265     -0.07982      0.02342    -51.49631     -1.41621      0.10334     -0.82721     -1.15414
 -1.96      9.79531    -60.06171      3.59262     61.00145   -200.06932    -35.14001     11.25835    203.45382     -0.06603      0.02422    -49.14001     -1.41428      0.07738     -0.80399     -1.16610
 -1.95      7.74926    -60.41334      3.70431     61.33764   -200.09540    -32.78056     10.20743    203.02398     -0.05224      0.02497    -46.78056     -1.41363      0.05130     -0.78133     -1.17920
 -1.94      5.70337    -60.73406      3.80221     61.72847   -200.01913    -30.41707      9.14874    202.53310     -0.03844      0.02563    -44.41707     -1.41553      0.02503     -0.75983     -1.19457
 -1.93      3.65884    -61.03157      3.88968     62.15819   -199.86734    -28.05374      8.08671    201.99808     -0.02466      0.02622    -42.05374     -1.41929     -0.00133     -0.73923     -1.21158
 -1.92      1.61523    -61.31361      3.97020     62.61386   -199.66519    -25.69052      7.02247    201.43363     -0.01089      0.02676    -39.69052     -1.42431     -0.02774     -0.71923     -1.22969
 -1.91     -0.42406    -61.55702      4.03329     63.13057   -199.33973    -23.33260      5.95670    200.79855      0.00286      0.02719    -37.33260     -1.43239     -0.05418     -0.70080     -1.25042
 -1.90     -2.46082    -61.78503      4.08942     63.67006   -198.96613    -20.97867      4.89185    200.13646      0.01659      0.02757    -34.97867     -1.44166     -0.08061     -0.68300     -1.27215
 -1.89     -4.49382    -61.98994      4.13509     64.24374   -198.52033    -18.63069      3.82837    199.43384      0.03029      0.02787    -32.63069     -1.45272     -0.10700     -0.66617     -1.29540
 -1.88     -6.52019    -62.16421      4.16687     64.85957   -197.98084    -16.29378      2.76948    198.67964      0.04395      0.02809    -30.29378     -1.46611     -0.13328     -0.65064     -1.32057
 -1.87     -8.54288    -62.32319      4.19173     65.49560   -197.39509    -13.96274      1.71336    197.90014      0.05758      0.02826    -27.96274     -1.48064     -0.15948     -0.63576     -1.34668
 -1.86    -10.55745    -62.45173      4.20280     66.17026   -196.71800    -11.64413      0.66373    197.07105      0.07116      0.02833    -25.64413     -1.49744     -0.18553     -0.62220     -1.37464
 -1.85    -12.56483    -62.55759      4.20362     66.87121   -195.97446     -9.33674     -0.37923    196.20660      0.08470      0.02834    -23.33674     -1.51589     -0.21141     -0.60964     -1.40391
 -1.84    -14.56741    -62.64834      4.19760     67.58970   -195.18662     -7.03682     -1.41776    195.31857      0.09819      0.02829    -21.03682     -1.53544     -0.23718     -0.59773     -1.43407
 -1.83    -16.55622    -62.70162      4.17470     68.34757   -194.29165     -4.75866     -2.44232    194.37476      0.11160      0.02814    -18.75866     -1.55765     -0.26261     -0.58751     -1.46632
 -1.82    -18.53886    -62.74008      4.14514     69.11945   -193.35530     -2.49027     -3.46026    193.40986      0.12496      0.02794    -16.49027     -1.58089     -0.28787     -0.57795     -1.49935
 -1.81    -20.51217    -62.75630      4.10561     69.91234   -192.35690     -0.23661     -4.46822    192.41337      0.13827      0.02767    -14.23661     -1.60566     -0.31288     -0.56940     -1.53357
 -1.80    -22.47176    -62.74318      4.05301     70.72983   -191.27875      1.99550     -5.46097    191.37721      0.15147      0.02732    -12.00450     -1.63242     -0.33751     -0.56220     -1.56928
 -1.79    -24.42417    -62.71550      3.99393     71.55880   -190.16151      4.21636     -6.44565    190.32184      0.16464      0.02692     -9.78364     -1.66014     -0.36195     -0.55568     -1.60571
 -1.78    -26.36158    -62.65886      3.92205     72.40909   -188.96764      6.41373     -7.41326    189.22933      0.17769      0.02644     -7.58627     -1.68977     -0.38596     -0.55050     -1.64354
 -1.77    -28.28681    -62.58080      3.84078     73.27301   -187.71889      8.59178     -8.36661    188.11104      0.19067      0.02589     -5.40822     -1.72076     -0.40962     -0.54632     -1.68236
 -1.76    -30.20392    -62.48847      3.75326     74.14602   -186.43354     10.75695     -9.31047    186.97557      0.20359      0.02530     -3.24305     -1.75265     -0.43304     -0.54281     -1.72182
 -1.75    -32.09928    -62.36098      3.65050     75.03801   -185.06052     12.88825    -10.22879    185.80007      0.21637      0.02461     -1.11175     -1.78672     -0.45583     -0.54097     -1.76281
 -1.74    -33.98538    -62.21966      3.54182     75.93617   -183.65390     15.00546    -11.13626    184.60969      0.22908      0.02387      1.00546     -1.82163     -0.47835     -0.53979     -1.80438
 -1.73    -35.85759    -62.05759      3.42426     76.84360   -182.19688     17.10154    -12.02746    183.39700      0.24170      0.02308      3.10154     -1.85779     -0.50046     -0.53960     -1.84680
 -1.72    -37.71019    -61.86833      3.29522     77.76069   -180.67550     19.16849    -12.89586    182.15675      0.25419      0.02221      5.16849     -1.89554     -0.52201     -0.54072     -1.89029
 -1.71    -39.55274    -61.66558      3.16053     78.68199   -179.12265     21.22069    -13.75260    180.90325      0.26661      0.02130      7.22069     -1.93407     -0.54327     -0.54249     -1.93429
 -1.70    -41.37465    -61.43611      3.01474     79.61042   -177.50821     23.24299    -14.58556    179.62434      0.27889      0.02032      9.24299     -1.97413     -0.56394     -0.54554     -1.97930
 -1.69    -43.18036    -61.18698      2.86093     80.54242   -175.84963     25.24232    -15.40000    178.32795      0.29106      0.01928     11.24232     -2.01529     -0.58415     -0.54956     -2.02500
 -1.68    -44.97525    -60.92474      2.70176     81.47681   -174.16162     27.22634    -16.20210    177.01992      0.30316      0.01821     13.22634     -2.05718     -0.60406     -0.55421     -2.07116
 -1.67    -46.74195    -60.63037      2.52974     82.41438   -172.40501     29.16946    -16.97164    175.68661      0.31507      0.01705     15.16946     -2.10077     -0.62315     -0.56043     -2.11837
 -1.66    -48.49695    -60.32342      2.35279     83.35221   -170.62257     31.09570    -17.72773    174.34443      0.32690      0.01586     17.09570     -2.14500     -0.64191     -0.56726     -2.16594
 -1.65    -50.23438    -59.99760      2.16845     84.29042   -168.80139     32.99659    -18.46363    172.98892      0.33861      0.01462     18.99659     -2.19019     -0.66018     -0.57502     -2.21408
 -1.64    -51.94757    -59.64718      1.97470     85.22724   -166.93103     34.86346    -19.17216    171.61755      0.35016      0.01331     20.86346     -2.23661     -0.67776     -0.58398     -2.26290
 -1.63    -53.64845    -59.28459      1.77635     86.16292   -165.03664     36.71332    -19.86691    170.23870      0.36163      0.01197     22.71332     -2.28362     -0.69500     -0.59354     -2.31206
 -1.62    -55.32429    -58.89796      1.56905     87.09543   -163.09546     38.52898    -20.53390    168.84587      0.37292      0.01058     24.52898     -2.33179     -0.71155     -0.60428     -2.36186
 -1.61    -56.98080    -58.49371      1.35537     88.02431   -161.12086     40.31894    -21.17984    167.44390      0.38409      0.00914     26.31894     -2.38079     -0.72758     -0.61590     -2.41209
 -1.60    -58.62442    -58.07772      1.13745     88.95079   -159.12396     42.09176    -21.81175    166.03585      0.39517      0.00767     28.09176     -2.43034     -0.74326     -0.62809     -2.46262
 -1.59    -60.23493    -57.63308      0.90947     89.86929   -157.07403     43.82171    -22.40830    164.61483      0.40602      0.00613     29.82171     -2.48121     -0.75806     -0.64172     -2.51381
 -1.58    -61.83186    -57.17726      0.67771     90.78389   -155.00391     45.53449    -22.99061    163.18952      0.41679      0.00457     31.53449     -2.53258     -0.77251     -0.65590     -2.56525
 -1.57    -63.40843    -56.70465      0.44026     91.69263   -152.90348     47.22157    -23.55158    161.75776      0.42742      0.00297     33.22157     -2.58470     -0.78643     -0.67092     -2.61706
 -1.56    -64.95718    -56.21026      0.19570     92.59221   -150.76572     48.87351    -24.08371    160.31992      0.43786      0.00132     34.87351     -2.63775     -0.79964     -0.68702     -2.66930
 -1.55    -66.49188    -55.70511     -0.05229     93.48691   -148.60994     50.50780    -24.60136    158.87958      0.44820     -0.00035     36.50780     -2.69124     -0.81248     -0.70366     -2.72173
